#K-Path(1/A) Energy-Level(eV)
# NKPTS & NBANDS:  84  76
# Band-Index:    1
   0.00000    -16.573469
   0.03287    -16.572857
   0.06574    -16.571059
   0.09861    -16.568080
   0.13148    -16.563845
   0.16435    -16.558394
   0.19722    -16.551710
   0.23009    -16.543785
   0.26297    -16.534589
   0.29584    -16.524126
   0.32871    -16.513304
   0.36158    -16.502483
   0.39445    -16.491542
   0.42732    -16.480797
   0.46019    -16.470737
   0.49306    -16.461896
   0.52593    -16.454921
   0.55880    -16.450404
   0.59167    -16.448836
   0.59167    -16.448836
   0.63351    -16.452417
   0.67535    -16.461187
   0.71719    -16.472247
   0.75902    -16.483944
   0.80086    -16.495480
   0.80086    -16.495483
   0.83389    -16.504256
   0.86692    -16.512602
   0.89995    -16.520442
   0.93298    -16.527777
   0.96601    -16.534498
   0.99904    -16.540650
   1.03207    -16.546198
   1.06510    -16.551155
   1.09813    -16.555530
   1.13116    -16.559342
   1.16419    -16.562617
   1.19722    -16.565380
   1.23025    -16.567686
   1.26328    -16.569539
   1.29631    -16.570995
   1.32934    -16.572095
   1.36237    -16.572859
   1.39539    -16.573309
   1.42842    -16.573469
   1.42842    -16.573469
   1.46045    -16.573460
   1.49247    -16.573471
   1.52450    -16.573497
   1.55653    -16.573520
   1.58855    -16.573575
   1.62058    -16.573625
   1.65260    -16.573676
   1.68463    -16.573756
   1.71665    -16.573839
   1.74868    -16.573934
   1.78070    -16.574017
   1.81273    -16.574096
   1.84475    -16.574159
   1.87678    -16.574226
   1.90880    -16.574255
   1.94083    -16.574274
   1.94083    -16.574274
   1.97569    -16.573207
   2.01056    -16.570066
   2.04542    -16.564908
   2.08029    -16.557820
   2.11515    -16.548994
   2.15002    -16.538604
   2.18488    -16.526958
   2.21975    -16.514359
   2.25461    -16.501231
   2.28947    -16.488010
   2.32434    -16.475200
   2.35920    -16.463307
   2.35920    -16.463307
   2.39618    -16.462851
   2.43316    -16.461564
   2.47014    -16.459539
   2.50712    -16.456949
   2.54410    -16.454115
   2.58108    -16.451466
   2.61806    -16.449544
   2.65504    -16.448836
 
# Band-Index:    2
   2.65504    -16.448834
   2.61806    -16.449542
   2.58108    -16.451463
   2.54410    -16.454111
   2.50712    -16.456945
   2.47014    -16.459534
   2.43316    -16.461559
   2.39618    -16.462845
   2.35920    -16.463300
   2.35920    -16.463300
   2.32434    -16.452666
   2.28947    -16.443587
   2.25461    -16.436117
   2.21975    -16.430164
   2.18488    -16.425539
   2.15002    -16.422007
   2.11515    -16.419356
   2.08029    -16.417391
   2.04542    -16.416003
   2.01056    -16.415059
   1.97569    -16.414523
   1.94083    -16.414358
   1.94083    -16.414358
   1.90880    -16.418022
   1.87678    -16.427838
   1.84475    -16.441430
   1.81273    -16.456848
   1.78070    -16.472794
   1.74868    -16.488511
   1.71665    -16.503494
   1.68463    -16.517421
   1.65260    -16.530072
   1.62058    -16.541298
   1.58855    -16.550965
   1.55653    -16.558980
   1.52450    -16.565281
   1.49247    -16.569810
   1.46045    -16.572543
   1.42842    -16.573469
   1.42842    -16.573469
   1.39539    -16.572788
   1.36237    -16.570798
   1.32934    -16.567520
   1.29631    -16.562977
   1.26328    -16.557248
   1.23025    -16.550413
   1.19722    -16.542555
   1.16419    -16.533791
   1.13116    -16.524220
   1.09813    -16.513979
   1.06510    -16.503180
   1.03207    -16.491952
   0.99904    -16.480431
   0.96601    -16.468746
   0.93298    -16.457036
   0.89995    -16.445440
   0.86692    -16.434115
   0.83389    -16.423262
   0.80086    -16.412954
   0.80086    -16.412960
   0.75902    -16.418397
   0.71719    -16.431545
   0.67535    -16.441091
   0.63351    -16.446897
   0.59167    -16.448834
   0.59167    -16.448834
   0.55880    -16.450402
   0.52593    -16.454919
   0.49306    -16.461894
   0.46019    -16.470735
   0.42732    -16.480795
   0.39445    -16.491540
   0.36158    -16.502482
   0.32871    -16.513302
   0.29584    -16.523703
   0.26297    -16.533458
   0.23009    -16.542396
   0.19722    -16.550370
   0.16435    -16.557265
   0.13148    -16.563022
   0.09861    -16.567554
   0.06574    -16.570820
   0.03287    -16.572796
   0.00000    -16.573469
 
# Band-Index:    3
   0.00000    -16.573468
   0.03287    -16.572795
   0.06574    -16.570819
   0.09861    -16.567552
   0.13148    -16.563021
   0.16435    -16.557264
   0.19722    -16.550368
   0.23009    -16.542394
   0.26297    -16.533457
   0.29584    -16.523702
   0.32871    -16.512402
   0.36158    -16.499417
   0.39445    -16.485209
   0.42732    -16.469762
   0.46019    -16.453148
   0.49306    -16.435405
   0.52593    -16.416628
   0.55880    -16.396840
   0.59167    -16.376327
   0.59167    -16.376327
   0.63351    -16.378063
   0.67535    -16.383090
   0.71719    -16.390932
   0.75902    -16.401078
   0.80086    -16.401762
   0.80086    -16.401769
   0.83389    -16.386389
   0.86692    -16.369174
   0.89995    -16.350286
   0.93298    -16.360973
   0.96601    -16.383571
   0.99904    -16.405943
   1.03207    -16.427770
   1.06510    -16.448786
   1.09813    -16.468750
   1.13116    -16.487432
   1.16419    -16.504642
   1.19722    -16.520201
   1.23025    -16.533980
   1.26328    -16.545841
   1.29631    -16.555668
   1.32934    -16.563403
   1.36237    -16.568973
   1.39539    -16.572334
   1.42842    -16.573468
   1.42842    -16.573468
   1.46045    -16.572542
   1.49247    -16.569809
   1.52450    -16.565280
   1.55653    -16.558979
   1.58855    -16.550964
   1.62058    -16.541297
   1.65260    -16.530071
   1.68463    -16.517420
   1.71665    -16.503493
   1.74868    -16.488510
   1.78070    -16.472793
   1.81273    -16.456846
   1.84475    -16.441429
   1.87678    -16.427837
   1.90880    -16.418021
   1.94083    -16.414357
   1.94083    -16.414357
   1.97569    -16.413621
   2.01056    -16.411454
   2.04542    -16.407938
   2.08029    -16.403195
   2.11515    -16.397425
   2.15002    -16.390829
   2.18488    -16.383682
   2.21975    -16.376212
   2.25461    -16.368641
   2.28947    -16.361056
   2.32434    -16.353450
   2.35920    -16.345728
   2.35920    -16.345728
   2.39618    -16.346904
   2.43316    -16.350209
   2.47014    -16.355104
   2.50712    -16.360839
   2.54410    -16.366642
   2.58108    -16.371646
   2.61806    -16.375094
   2.65504    -16.376327
 
# Band-Index:    4
   2.65504    -16.376305
   2.61806    -16.375073
   2.58108    -16.371626
   2.54410    -16.366624
   2.50712    -16.360823
   2.47014    -16.355090
   2.43316    -16.350198
   2.39618    -16.346896
   2.35920    -16.345719
   2.35920    -16.345719
   2.32434    -16.337751
   2.28947    -16.329529
   2.25461    -16.321129
   2.21975    -16.312793
   2.18488    -16.304801
   2.15002    -16.297407
   2.11515    -16.290862
   2.08029    -16.285308
   2.04542    -16.280897
   2.01056    -16.277700
   1.97569    -16.275765
   1.94083    -16.275121
   1.94083    -16.275121
   1.90880    -16.270994
   1.87678    -16.259836
   1.84475    -16.244071
   1.81273    -16.225845
   1.78070    -16.206606
   1.74868    -16.187439
   1.71665    -16.169179
   1.68463    -16.152580
   1.65260    -16.138393
   1.62058    -16.127112
   1.58855    -16.118908
   1.55653    -16.113355
   1.52450    -16.109964
   1.49247    -16.107873
   1.46045    -16.106778
   1.42842    -16.106451
   1.42842    -16.106451
   1.39539    -16.107099
   1.36237    -16.109194
   1.32934    -16.113004
   1.29631    -16.119147
   1.26328    -16.128313
   1.23025    -16.140775
   1.19722    -16.156458
   1.16419    -16.174884
   1.13116    -16.195388
   1.09813    -16.217345
   1.06510    -16.240119
   1.03207    -16.263194
   0.99904    -16.286127
   0.96601    -16.308504
   0.93298    -16.329994
   0.89995    -16.338415
   0.86692    -16.316306
   0.83389    -16.294998
   0.80086    -16.301335
   0.80086    -16.301343
   0.75902    -16.322930
   0.71719    -16.342553
   0.67535    -16.359343
   0.63351    -16.371577
   0.59167    -16.376305
   0.59167    -16.376305
   0.55880    -16.355072
   0.52593    -16.333364
   0.49306    -16.311359
   0.46019    -16.289290
   0.42732    -16.267471
   0.39445    -16.246032
   0.36158    -16.225296
   0.32871    -16.205615
   0.29584    -16.187228
   0.26297    -16.170397
   0.23009    -16.155330
   0.19722    -16.142191
   0.16435    -16.131082
   0.13148    -16.122058
   0.09861    -16.115118
   0.06574    -16.110299
   0.03287    -16.107387
   0.00000    -16.106451
 
# Band-Index:    5
   0.00000    -16.106449
   0.03287    -16.106207
   0.06574    -16.105516
   0.09861    -16.104399
   0.13148    -16.102785
   0.16435    -16.100780
   0.19722    -16.098414
   0.23009    -16.095687
   0.26297    -16.093365
   0.29584    -16.107002
   0.32871    -16.121313
   0.36158    -16.135926
   0.39445    -16.150494
   0.42732    -16.164464
   0.46019    -16.177313
   0.49306    -16.188417
   0.52593    -16.197077
   0.55880    -16.202627
   0.59167    -16.204567
   0.59167    -16.204567
   0.63351    -16.207825
   0.67535    -16.217337
   0.71719    -16.232343
   0.75902    -16.251847
   0.80086    -16.274898
   0.80086    -16.274896
   0.83389    -16.283253
   0.86692    -16.264462
   0.89995    -16.245154
   0.93298    -16.225546
   0.96601    -16.205831
   0.99904    -16.186238
   1.03207    -16.166986
   1.06510    -16.148284
   1.09813    -16.130407
   1.13116    -16.117577
   1.16419    -16.114612
   1.19722    -16.112214
   1.23025    -16.110344
   1.26328    -16.108912
   1.29631    -16.107868
   1.32934    -16.107170
   1.36237    -16.106741
   1.39539    -16.106504
   1.42842    -16.106449
   1.42842    -16.106449
   1.46045    -16.106777
   1.49247    -16.107872
   1.52450    -16.109962
   1.55653    -16.113354
   1.58855    -16.118907
   1.62058    -16.127111
   1.65260    -16.138392
   1.68463    -16.152579
   1.71665    -16.169177
   1.74868    -16.187437
   1.78070    -16.206605
   1.81273    -16.225844
   1.84475    -16.244069
   1.87678    -16.259834
   1.90880    -16.270993
   1.94083    -16.275120
   1.94083    -16.275120
   1.97569    -16.275112
   2.01056    -16.275043
   2.04542    -16.274826
   2.08029    -16.274275
   2.11515    -16.273188
   2.15002    -16.271244
   2.18488    -16.268144
   2.21975    -16.263535
   2.25461    -16.257163
   2.28947    -16.248757
   2.32434    -16.238275
   2.35920    -16.225824
   2.35920    -16.225824
   2.39618    -16.224897
   2.43316    -16.222339
   2.47014    -16.218693
   2.50712    -16.214567
   2.54410    -16.210628
   2.58108    -16.207393
   2.61806    -16.205300
   2.65504    -16.204567
 
# Band-Index:    6
   2.65504    -16.204566
   2.61806    -16.205297
   2.58108    -16.207388
   2.54410    -16.210620
   2.50712    -16.214557
   2.47014    -16.218681
   2.43316    -16.222327
   2.39618    -16.224884
   2.35920    -16.225811
   2.35920    -16.225811
   2.32434    -16.211484
   2.28947    -16.195689
   2.25461    -16.178835
   2.21975    -16.161342
   2.18488    -16.143848
   2.15002    -16.126955
   2.11515    -16.111283
   2.08029    -16.097498
   2.04542    -16.086149
   2.01056    -16.077710
   1.97569    -16.072519
   1.94083    -16.070768
   1.94083    -16.070768
   1.90880    -16.070776
   1.87678    -16.070790
   1.84475    -16.070766
   1.81273    -16.070643
   1.78070    -16.070329
   1.74868    -16.069722
   1.71665    -16.074421
   1.68463    -16.079668
   1.65260    -16.084675
   1.62058    -16.089310
   1.58855    -16.093440
   1.55653    -16.096927
   1.52450    -16.099718
   1.49247    -16.101777
   1.46045    -16.103034
   1.42842    -16.103470
   1.42842    -16.103470
   1.39539    -16.103003
   1.36237    -16.101626
   1.32934    -16.099366
   1.29631    -16.096222
   1.26328    -16.092323
   1.23025    -16.087774
   1.19722    -16.083790
   1.16419    -16.097967
   1.13116    -16.113566
   1.09813    -16.121158
   1.06510    -16.125332
   1.03207    -16.130192
   0.99904    -16.135668
   0.96601    -16.141701
   0.93298    -16.148220
   0.89995    -16.155112
   0.86692    -16.162272
   0.83389    -16.169531
   0.80086    -16.176738
   0.80086    -16.176745
   0.75902    -16.185403
   0.71719    -16.193060
   0.67535    -16.199180
   0.63351    -16.203178
   0.59167    -16.204566
   0.59167    -16.204566
   0.55880    -16.202626
   0.52593    -16.197076
   0.49306    -16.188416
   0.46019    -16.177312
   0.42732    -16.164463
   0.39445    -16.150492
   0.36158    -16.135924
   0.32871    -16.121310
   0.29584    -16.106999
   0.26297    -16.093361
   0.23009    -16.081648
   0.19722    -16.087163
   0.16435    -16.091940
   0.13148    -16.096028
   0.09861    -16.099226
   0.06574    -16.101582
   0.03287    -16.102999
   0.00000    -16.103470
 
# Band-Index:    7
   0.00000    -16.035066
   0.03287    -16.036042
   0.06574    -16.039000
   0.09861    -16.043888
   0.13148    -16.050606
   0.16435    -16.059037
   0.19722    -16.069184
   0.23009    -16.080666
   0.26297    -16.092654
   0.29584    -16.089362
   0.32871    -16.085857
   0.36158    -16.082204
   0.39445    -16.078457
   0.42732    -16.074661
   0.46019    -16.070724
   0.49306    -16.067021
   0.52593    -16.063467
   0.55880    -16.060055
   0.59167    -16.056842
   0.59167    -16.056842
   0.63351    -16.056992
   0.67535    -16.057338
   0.71719    -16.057849
   0.75902    -16.058516
   0.80086    -16.059331
   0.80086    -16.059338
   0.83389    -16.060022
   0.86692    -16.060795
   0.89995    -16.061578
   0.93298    -16.062333
   0.96601    -16.063026
   0.99904    -16.063611
   1.03207    -16.064039
   1.06510    -16.064233
   1.09813    -16.064868
   1.13116    -16.071069
   1.16419    -16.077013
   1.19722    -16.082616
   1.23025    -16.071213
   1.26328    -16.060358
   1.29631    -16.051342
   1.32934    -16.044258
   1.36237    -16.039153
   1.39539    -16.036078
   1.42842    -16.035066
   1.42842    -16.035066
   1.46045    -16.036003
   1.49247    -16.038776
   1.52450    -16.043112
   1.55653    -16.048500
   1.58855    -16.054223
   1.62058    -16.059490
   1.65260    -16.063719
   1.68463    -16.066661
   1.71665    -16.068606
   1.74868    -16.069720
   1.78070    -16.070328
   1.81273    -16.070641
   1.84475    -16.070765
   1.87678    -16.070788
   1.90880    -16.070775
   1.94083    -16.070766
   1.94083    -16.070766
   1.97569    -16.070584
   2.01056    -16.070055
   2.04542    -16.069197
   2.08029    -16.068040
   2.11515    -16.066610
   2.15002    -16.064924
   2.18488    -16.063017
   2.21975    -16.060935
   2.25461    -16.058756
   2.28947    -16.056459
   2.32434    -16.054135
   2.35920    -16.051837
   2.35920    -16.051837
   2.39618    -16.052009
   2.43316    -16.052493
   2.47014    -16.053283
   2.50712    -16.054219
   2.54410    -16.055230
   2.58108    -16.056083
   2.61806    -16.056670
   2.65504    -16.056842
 
# Band-Index:    8
   2.65504    -16.056840
   2.61806    -16.056667
   2.58108    -16.056080
   2.54410    -16.055226
   2.50712    -16.054214
   2.47014    -16.053278
   2.43316    -16.052486
   2.39618    -16.052002
   2.35920    -16.051831
   2.35920    -16.051831
   2.32434    -16.049527
   2.28947    -16.047330
   2.25461    -16.045246
   2.21975    -16.043283
   2.18488    -16.041531
   2.15002    -16.039947
   2.11515    -16.038597
   2.08029    -16.041591
   2.04542    -16.044657
   2.01056    -16.046902
   1.97569    -16.048277
   1.94083    -16.048768
   1.94083    -16.048768
   1.90880    -16.049486
   1.87678    -16.051603
   1.84475    -16.054883
   1.81273    -16.059086
   1.78070    -16.063908
   1.74868    -16.069101
   1.71665    -16.068604
   1.68463    -16.066660
   1.65260    -16.063717
   1.62058    -16.059489
   1.58855    -16.054222
   1.55653    -16.048499
   1.52450    -16.043111
   1.49247    -16.038775
   1.46045    -16.036002
   1.42842    -16.035065
   1.42842    -16.035065
   1.39539    -16.036039
   1.36237    -16.038874
   1.32934    -16.043139
   1.29631    -16.048125
   1.26328    -16.053025
   1.23025    -16.057090
   1.19722    -16.060216
   1.16419    -16.062248
   1.13116    -16.063459
   1.09813    -16.064099
   1.06510    -16.058566
   1.03207    -16.052188
   0.99904    -16.045868
   0.96601    -16.039736
   0.93298    -16.040810
   0.89995    -16.042053
   0.86692    -16.043505
   0.83389    -16.045147
   0.80086    -16.046992
   0.80086    -16.046991
   0.75902    -16.049539
   0.71719    -16.052172
   0.67535    -16.054556
   0.63351    -16.056252
   0.59167    -16.056840
   0.59167    -16.056840
   0.55880    -16.053864
   0.52593    -16.051154
   0.49306    -16.048667
   0.46019    -16.046450
   0.42732    -16.044484
   0.39445    -16.046930
   0.36158    -16.054570
   0.32871    -16.061952
   0.29584    -16.068966
   0.26297    -16.075570
   0.23009    -16.080662
   0.19722    -16.069180
   0.16435    -16.059033
   0.13148    -16.050602
   0.09861    -16.043883
   0.06574    -16.038995
   0.03287    -16.036037
   0.00000    -16.035065
 
# Band-Index:    9
   0.00000    -16.035056
   0.03287    -16.035088
   0.06574    -16.035210
   0.09861    -16.035427
   0.13148    -16.035731
   0.16435    -16.036119
   0.19722    -16.036624
   0.23009    -16.037253
   0.26297    -16.037999
   0.29584    -16.038897
   0.32871    -16.039989
   0.36158    -16.041273
   0.39445    -16.042768
   0.42732    -16.039087
   0.46019    -16.031129
   0.49306    -16.023100
   0.52593    -16.015121
   0.55880    -16.007181
   0.59167    -15.999429
   0.59167    -15.999429
   0.63351    -16.000020
   0.67535    -16.001722
   0.71719    -16.004531
   0.75902    -16.008391
   0.80086    -16.013246
   0.80086    -16.013242
   0.83389    -16.017686
   0.86692    -16.022611
   0.89995    -16.027959
   0.93298    -16.033669
   0.96601    -16.039657
   0.99904    -16.038829
   1.03207    -16.038062
   1.06510    -16.037390
   1.09813    -16.036863
   1.13116    -16.036431
   1.16419    -16.036081
   1.19722    -16.035795
   1.23025    -16.035595
   1.26328    -16.035420
   1.29631    -16.035280
   1.32934    -16.035178
   1.36237    -16.035102
   1.39539    -16.035059
   1.42842    -16.035056
   1.42842    -16.035056
   1.46045    -16.035047
   1.49247    -16.035061
   1.52450    -16.035091
   1.55653    -16.035106
   1.58855    -16.035132
   1.62058    -16.035167
   1.65260    -16.035243
   1.68463    -16.035236
   1.71665    -16.035322
   1.74868    -16.035306
   1.78070    -16.035331
   1.81273    -16.035372
   1.84475    -16.035348
   1.87678    -16.035352
   1.90880    -16.035354
   1.94083    -16.035354
   1.94083    -16.035354
   1.97569    -16.035506
   2.01056    -16.035887
   2.04542    -16.036530
   2.08029    -16.037432
   2.11515    -16.037810
   2.15002    -16.033355
   2.18488    -16.028396
   2.21975    -16.022955
   2.25461    -16.017196
   2.28947    -16.011200
   2.32434    -16.005092
   2.35920    -15.999005
   2.35920    -15.999005
   2.39618    -15.999016
   2.43316    -15.999076
   2.47014    -15.999154
   2.50712    -15.999231
   2.54410    -15.999315
   2.58108    -15.999392
   2.61806    -15.999414
   2.65504    -15.999429
 
# Band-Index:   10
   2.65504    -15.999420
   2.61806    -15.999406
   2.58108    -15.999384
   2.54410    -15.999307
   2.50712    -15.999223
   2.47014    -15.999146
   2.43316    -15.999068
   2.39618    -15.999007
   2.35920    -15.998996
   2.35920    -15.998996
   2.32434    -15.992989
   2.28947    -15.987176
   2.25461    -15.981674
   2.21975    -15.976549
   2.18488    -15.971890
   2.15002    -15.967711
   2.11515    -15.964058
   2.08029    -15.960960
   2.04542    -15.958435
   2.01056    -15.956529
   1.97569    -15.955322
   1.94083    -15.954919
   1.94083    -15.954919
   1.90880    -15.954556
   1.87678    -15.953560
   1.84475    -15.952119
   1.81273    -15.950511
   1.78070    -15.948901
   1.74868    -15.947582
   1.71665    -15.946470
   1.68463    -15.945589
   1.65260    -15.944883
   1.62058    -15.944340
