#K-Path(1/A) Energy-Level(eV)
# NKPTS & NBANDS: 140  36
# Band-Index    1
   0.00000    -15.648638
   0.01340    -15.648702
   0.02681    -15.648694
   0.04021    -15.648660
   0.05362    -15.648654
   0.06702    -15.648657
   0.08042    -15.648659
   0.09383    -15.648661
   0.10723    -15.648657
   0.12064    -15.648658
   0.13404    -15.648684
   0.14744    -15.648656
   0.16085    -15.648658
   0.17425    -15.648660
   0.18766    -15.648663
   0.20106    -15.648616
   0.21446    -15.648618
   0.22787    -15.648631
   0.24127    -15.648630
   0.25468    -15.648630
   0.25468    -15.648630
   0.31075    -15.649288
   0.36682    -15.651561
   0.42289    -15.656168
   0.47896    -15.664354
   0.53503    -15.677257
   0.59110    -15.695129
   0.64718    -15.716867
   0.70325    -15.740609
   0.75932    -15.764601
   0.81539    -15.787525
   0.87146    -15.808372
   0.92753    -15.826711
   0.98361    -15.842158
   1.03968    -15.854626
   1.09575    -15.864202
   1.15182    -15.871080
   1.20789    -15.875530
   1.26396    -15.877970
   1.32003    -15.878890
   1.32003    -15.878890
   1.34947    -15.878907
   1.37891    -15.878720
   1.40834    -15.878396
   1.43778    -15.877998
   1.46722    -15.877560
   1.49665    -15.877151
   1.52609    -15.876804
   1.55553    -15.876552
   1.58496    -15.876350
   1.61440    -15.876317
   1.64384    -15.876375
   1.67327    -15.876482
   1.70271    -15.876644
   1.73215    -15.876852
   1.76158    -15.877059
   1.79102    -15.877256
   1.82046    -15.877408
   1.84989    -15.877504
   1.87933    -15.877537
   1.87933    -15.877537
   1.92890    -15.875986
   1.97847    -15.871308
   2.02804    -15.863605
   2.07761    -15.852950
   2.12718    -15.839526
   2.17675    -15.823490
   2.22632    -15.805170
   2.27589    -15.784968
   2.32546    -15.763387
   2.37503    -15.741221
   2.42460    -15.719440
   2.47417    -15.699364
   2.52374    -15.682280
   2.57331    -15.669109
   2.62288    -15.659987
   2.67245    -15.654244
   2.72202    -15.650923
   2.77159    -15.649204
   2.82116    -15.648638
   2.82116    -15.648638
   2.87863    -15.649410
   2.93610    -15.651797
   2.99357    -15.656708
   3.05105    -15.665436
   3.10852    -15.679237
   3.16599    -15.698182
   3.22346    -15.720932
   3.28094    -15.745455
   3.33841    -15.769944
   3.39588    -15.792988
   3.45335    -15.813713
   3.51082    -15.831619
   3.56830    -15.846536
   3.62577    -15.858331
   3.68324    -15.867088
   3.74071    -15.873134
   3.79819    -15.876802
   3.85566    -15.878562
   3.91313    -15.878942
   3.91313    -15.878942
   3.94117    -15.878765
   3.96920    -15.878462
   3.99724    -15.878070
   4.02527    -15.877676
   4.05331    -15.877295
   4.08135    -15.876941
   4.10938    -15.876638
   4.13742    -15.876436
   4.16545    -15.876337
   4.19349    -15.876330
   4.22152    -15.876400
   4.24956    -15.876538
   4.27760    -15.876719
   4.30563    -15.876944
   4.33367    -15.877153
   4.36170    -15.877319
   4.38974    -15.877472
   4.41777    -15.877563
   4.44581    -15.877582
   4.44581    -15.877582
   4.49598    -15.876014
   4.54615    -15.871343
   4.59632    -15.863617
   4.64649    -15.852945
   4.69666    -15.839502
   4.74683    -15.823475
   4.79700    -15.805154
   4.84717    -15.784937
   4.89734    -15.763372
   4.94751    -15.741209
   4.99768    -15.719456
   5.04785    -15.699362
   5.09803    -15.682307
   5.14820    -15.669121
   5.19837    -15.660007
   5.24854    -15.654243
   5.29871    -15.650910
   5.34888    -15.649202
   5.39905    -15.648638
 
# Band-Index    2
   5.39905    -15.478624
   5.34888    -15.481169
   5.29871    -15.488300
   5.24854    -15.499055
   5.19837    -15.511635
   5.14820    -15.524006
   5.09803    -15.534251
   5.04785    -15.541242
   4.99768    -15.545143
   4.94751    -15.546524
   4.89734    -15.546145
   4.84717    -15.544673
   4.79700    -15.542616
   4.74683    -15.540265
   4.69666    -15.537975
   4.64649    -15.535910
   4.59632    -15.534200
   4.54615    -15.532940
   4.49598    -15.532138
   4.44581    -15.531861
   4.44581    -15.531861
   4.41777    -15.531850
   4.38974    -15.531806
   4.36170    -15.531732
   4.33367    -15.531626
   4.30563    -15.531479
   4.27760    -15.531277
   4.24956    -15.531074
   4.22152    -15.530867
   4.19349    -15.530602
   4.16545    -15.530319
   4.13742    -15.529990
   4.10938    -15.529638
   4.08135    -15.529324
   4.05331    -15.529003
   4.02527    -15.528691
   3.99724    -15.528405
   3.96920    -15.528214
   3.94117    -15.528062
   3.91313    -15.528002
   3.91313    -15.528002
   3.85566    -15.528146
   3.79819    -15.528790
   3.74071    -15.529991
   3.68324    -15.531796
   3.62577    -15.534063
   3.56830    -15.536720
   3.51082    -15.539603
   3.45335    -15.542533
   3.39588    -15.545187
   3.33841    -15.547137
   3.28094    -15.547772
   3.22346    -15.546296
   3.16599    -15.541591
   3.10852    -15.532749
   3.05105    -15.519931
   2.99357    -15.505174
   2.93610    -15.491520
   2.87863    -15.482058
   2.82116    -15.478624
   2.82116    -15.478624
   2.77159    -15.481165
   2.72202    -15.488318
   2.67245    -15.499058
   2.62288    -15.511643
   2.57331    -15.523977
   2.52374    -15.534217
   2.47417    -15.541265
   2.42460    -15.545151
   2.37503    -15.546535
   2.32546    -15.546148
   2.27589    -15.544699
   2.22632    -15.542614
   2.17675    -15.540273
   2.12718    -15.537969
   2.07761    -15.535888
   2.02804    -15.534164
   1.97847    -15.532885
   1.92890    -15.532102
   1.87933    -15.531832
   1.87933    -15.531832
   1.84989    -15.531795
   1.82046    -15.531751
   1.79102    -15.531660
   1.76158    -15.531541
   1.73215    -15.531390
   1.70271    -15.531199
   1.67327    -15.530988
   1.64384    -15.530744
   1.61440    -15.530450
   1.58496    -15.530135
   1.55553    -15.529829
   1.52609    -15.529468
   1.49665    -15.529108
   1.46722    -15.528790
   1.43778    -15.528519
   1.40834    -15.528278
   1.37891    -15.528093
   1.34947    -15.528001
   1.32003    -15.528036
   1.32003    -15.528036
   1.26396    -15.528418
   1.20789    -15.529280
   1.15182    -15.530643
   1.09575    -15.532509
   1.03968    -15.534850
   0.98361    -15.537525
   0.92753    -15.540390
   0.87146    -15.543203
   0.81539    -15.545675
   0.75932    -15.547361
   0.70325    -15.547656
   0.64718    -15.545722
   0.59110    -15.540539
   0.53503    -15.531359
   0.47896    -15.518533
   0.42289    -15.504025
   0.36682    -15.490924
   0.31075    -15.481868
   0.25468    -15.478683
   0.25468    -15.478683
   0.24127    -15.478683
   0.22787    -15.478696
   0.21446    -15.478687
   0.20106    -15.478687
   0.18766    -15.478709
   0.17425    -15.478683
   0.16085    -15.478673
   0.14744    -15.478673
   0.13404    -15.478675
   0.12064    -15.478668
   0.10723    -15.478668
   0.09383    -15.478678
   0.08042    -15.478678
   0.06702    -15.478677
   0.05362    -15.478675
   0.04021    -15.478634
   0.02681    -15.478636
   0.01340    -15.478639
   0.00000    -15.478624
 
# Band-Index    3
   0.00000    -15.478622
   0.01340    -15.478637
   0.02681    -15.478634
   0.04021    -15.478632
   0.05362    -15.478673
   0.06702    -15.478674
   0.08042    -15.478675
   0.09383    -15.478676
   0.10723    -15.478666
   0.12064    -15.478666
   0.13404    -15.478673
   0.14744    -15.478671
   0.16085    -15.478671
   0.17425    -15.478681
   0.18766    -15.478706
   0.20106    -15.478685
   0.21446    -15.478685
   0.22787    -15.478694
   0.24127    -15.478681
   0.25468    -15.478681
   0.25468    -15.478681
   0.31075    -15.477811
   0.36682    -15.475290
   0.42289    -15.471120
   0.47896    -15.465712
   0.53503    -15.459237
   0.59110    -15.452130
   0.64718    -15.444722
   0.70325    -15.437602
   0.75932    -15.431123
   0.81539    -15.425697
   0.87146    -15.421474
   0.92753    -15.418583
   0.98361    -15.416924
   1.03968    -15.416348
   1.09575    -15.416607
   1.15182    -15.417391
   1.20789    -15.418372
   1.26396    -15.419226
   1.32003    -15.419713
   1.32003    -15.419714
   1.34947    -15.419723
   1.37891    -15.419542
   1.40834    -15.419157
   1.43778    -15.418558
   1.46722    -15.417704
   1.49665    -15.416642
   1.52609    -15.415365
   1.55553    -15.413912
   1.58496    -15.412277
   1.61440    -15.410630
   1.64384    -15.408894
   1.67327    -15.407148
   1.70271    -15.405452
   1.73215    -15.403901
   1.76158    -15.402559
   1.79102    -15.401443
   1.82046    -15.400628
   1.84989    -15.400077
   1.87933    -15.399863
   1.87933    -15.399863
   1.92890    -15.400213
   1.97847    -15.401180
   2.02804    -15.402807
   2.07761    -15.405151
   2.12718    -15.408338
   2.17675    -15.412383
   2.22632    -15.417288
   2.27589    -15.422993
   2.32546    -15.429339
   2.37503    -15.436138
   2.42460    -15.443136
   2.47417    -15.450161
   2.52374    -15.456900
   2.57331    -15.463009
   2.62288    -15.468413
   2.67245    -15.472815
   2.72202    -15.476067
   2.77159    -15.478022
   2.82116    -15.478622
   2.82116    -15.478622
   2.87863    -15.477771
   2.93610    -15.475091
   2.99357    -15.470818
   3.05105    -15.465086
   3.10852    -15.458366
   3.16599    -15.450998
   3.22346    -15.443481
   3.28094    -15.436257
   3.33841    -15.429829
   3.39588    -15.424535
   3.45335    -15.420581
   3.51082    -15.417946
   3.56830    -15.416656
   3.62577    -15.416419
   3.68324    -15.416889
   3.74071    -15.417805
   3.79819    -15.418781
   3.85566    -15.419529
   3.91313    -15.419762
   3.91313    -15.419762
   3.94117    -15.419588
   3.96920    -15.419245
   3.99724    -15.418687
   4.02527    -15.417963
   4.05331    -15.417032
   4.08135    -15.415890
   4.10938    -15.414550
   4.13742    -15.413081
   4.16545    -15.411508
   4.19349    -15.409865
   4.22152    -15.408177
   4.24956    -15.406518
   4.27760    -15.404966
   4.30563    -15.403581
   4.33367    -15.402334
   4.36170    -15.401335
   4.38974    -15.400602
   4.41777    -15.400165
   4.44581    -15.400003
   4.44581    -15.400003
   4.49598    -15.400303
   4.54615    -15.401235
   4.59632    -15.402839
   4.64649    -15.405163
   4.69666    -15.408348
   4.74683    -15.412378
   4.79700    -15.417266
   4.84717    -15.422944
   4.89734    -15.429269
   4.94751    -15.436107
   4.99768    -15.443156
   5.04785    -15.450210
   5.09803    -15.456915
   5.14820    -15.463047
   5.19837    -15.468420
   5.24854    -15.472807
   5.29871    -15.476043
   5.34888    -15.478025
   5.39905    -15.478622
 
# Band-Index    4
   5.39905    -15.312449
   5.34888    -15.313709
   5.29871    -15.317057
   5.24854    -15.321784
   5.19837    -15.327083
   5.14820    -15.332452
   5.09803    -15.337599
   5.04785    -15.342428
   4.99768    -15.346945
   4.94751    -15.351177
   4.89734    -15.355053
   4.84717    -15.358612
   4.79700    -15.361816
   4.74683    -15.364616
   4.69666    -15.367002
   4.64649    -15.369048
   4.59632    -15.370653
   4.54615    -15.371809
   4.49598    -15.372495
   4.44581    -15.372731
   4.44581    -15.372731
   4.41777    -15.372627
   4.38974    -15.372236
   4.36170    -15.371627
   4.33367    -15.370771
   4.30563    -15.369699
   4.27760    -15.368376
   4.24956    -15.366843
   4.22152    -15.365101
   4.19349    -15.363158
   4.16545    -15.361030
   4.13742    -15.358747
   4.10938    -15.356301
   4.08135    -15.353747
   4.05331    -15.351127
   4.02527    -15.348451
   3.99724    -15.345799
   3.96920    -15.343338
   3.94117    -15.341264
   3.91313    -15.340125
   3.91313    -15.340125
   3.85566    -15.341877
   3.79819    -15.346001
   3.74071    -15.350022
   3.68324    -15.353367
   3.62577    -15.355839
   3.56830    -15.357317
   3.51082    -15.357795
   3.45335    -15.357317
   3.39588    -15.355865
   3.33841    -15.353490
   3.28094    -15.350291
   3.22346    -15.346329
   3.16599    -15.341651
   3.10852    -15.336304
   3.05105    -15.330448
   2.99357    -15.324333
   2.93610    -15.318494
   2.87863    -15.314136
   2.82116    -15.312449
   2.82116    -15.312449
   2.77159    -15.313718
   2.72202    -15.317079
   2.67245    -15.321776
   2.62288    -15.327075
   2.57331    -15.332395
   2.52374    -15.337594
   2.47417    -15.342416
   2.42460    -15.346960
   2.37503    -15.351166
   2.32546    -15.355050
   2.27589    -15.358662
   2.22632    -15.361852
   2.17675    -15.364658
   2.12718    -15.367085
   2.07761    -15.369075
   2.02804    -15.370636
   1.97847    -15.371754
   1.92890    -15.372446
   1.87933    -15.372603
   1.87933    -15.372603
   1.84989    -15.372469
   1.82046    -15.372074
   1.79102    -15.371416
   1.76158    -15.370497
   1.73215    -15.369305
   1.70271    -15.367887
   1.67327    -15.366202
   1.64384    -15.364315
   1.61440    -15.362187
   1.58496    -15.359863
   1.55553    -15.357402
   1.52609    -15.354728
   1.49665    -15.351994
   1.46722    -15.349209
   1.43778    -15.346432
   1.40834    -15.343782
   1.37891    -15.341507
   1.34947    -15.340133
   1.32003    -15.340345
   1.32003    -15.340345
   1.26396    -15.343648
   1.20789    -15.347698
   1.15182    -15.351374
   1.09575    -15.354327
   1.03968    -15.356396
   0.98361    -15.357575
   0.92753    -15.357781
   0.87146    -15.357007
   0.81539    -15.355381
   0.75932    -15.352840
   0.70325    -15.349564
   0.64718    -15.345572
   0.59110    -15.340921
   0.53503    -15.335654
   0.47896    -15.329877
   0.42289    -15.323777
   0.36682    -15.318243
   0.31075    -15.314052
   0.25468    -15.312513
   0.25468    -15.312513
   0.24127    -15.312513
   0.22787    -15.312521
   0.21446    -15.312493
   0.20106    -15.312493
   0.18766    -15.312517
   0.17425    -15.312494
   0.16085    -15.312506
   0.14744    -15.312505
   0.13404    -15.312509
   0.12064    -15.312487
   0.10723    -15.312487
   0.09383    -15.312494
   0.08042    -15.312493
   0.06702    -15.312491
   0.05362    -15.312489
   0.04021    -15.312442
   0.02681    -15.312458
   0.01340    -15.312494
   0.00000    -15.312449
 
# Band-Index    5
   0.00000    -15.312448
   0.01340    -15.312493
   0.02681    -15.312457
   0.04021    -15.312440
   0.05362    -15.312488
   0.06702    -15.312490
   0.08042    -15.312491
   0.09383    -15.312493
   0.10723    -15.312485
   0.12064    -15.312486
   0.13404    -15.312508
   0.14744    -15.312503
   0.16085    -15.312504
   0.17425    -15.312492
   0.18766    -15.312515
   0.20106    -15.312492
   0.21446    -15.312492
   0.22787    -15.312519
   0.24127    -15.312511
   0.25468    -15.312511
   0.25468    -15.312511
   0.31075    -15.312541
   0.36682    -15.312628
   0.42289    -15.312714
   0.47896    -15.312884
   0.53503    -15.313010
   0.59110    -15.313080
   0.64718    -15.313057
   0.70325    -15.312904
   0.75932    -15.312635
   0.81539    -15.312319
   0.87146    -15.312018
   0.92753    -15.312001
   0.98361    -15.312387
   1.03968    -15.313497
   1.09575    -15.315462
   1.15182    -15.318297
   1.20789    -15.321956
   1.26396    -15.326059
   1.32003    -15.329414
   1.32003    -15.329414
   1.34947    -15.329553
   1.37891    -15.328163
   1.40834    -15.325856
   1.43778    -15.323127
   1.46722    -15.320205
   1.49665    -15.317216
   1.52609    -15.314218
   1.55553    -15.311339
   1.58496    -15.308488
   1.61440    -15.305849
   1.64384    -15.303403
   1.67327    -15.301100
   1.70271    -15.299059
   1.73215    -15.297262
   1.76158    -15.295814
   1.79102    -15.294629
   1.82046    -15.293776
   1.84989    -15.293240
   1.87933    -15.293087
   1.87933    -15.293087
   1.92890    -15.293446
   1.97847    -15.294540
   2.02804    -15.296268
   2.07761    -15.298465
   2.12718    -15.300949
   2.17675    -15.303457
   2.22632    -15.305806
   2.27589    -15.307857
   2.32546    -15.309534
   2.37503    -15.310825
   2.42460    -15.311726
   2.47417    -15.312318
   2.52374    -15.312630
   2.57331    -15.312736
   2.62288    -15.312718
   2.67245    -15.312657
   2.72202    -15.312591
   2.77159    -15.312501
   2.82116    -15.312448
   2.82116    -15.312448
   2.87863    -15.312533
   2.93610    -15.312607
   2.99357    -15.312769
   3.05105    -15.312882
   3.10852    -15.313001
   3.16599    -15.313060
   3.22346    -15.313029
   3.28094    -15.312855
   3.33841    -15.312565
   3.39588    -15.312227
   3.45335    -15.311986
   3.51082    -15.312050
   3.56830    -15.312690
   3.62577    -15.314116
   3.68324    -15.316455
   3.74071    -15.319719
   3.79819    -15.323671
   3.85566    -15.327816
   3.91313    -15.329654
   3.91313    -15.329654
   3.94117    -15.328421
   3.96920    -15.326294
   3.99724    -15.323710
   4.02527    -15.321014
   4.05331    -15.318172
   4.08135    -15.315326
   4.10938    -15.312510
   4.13742    -15.309835
   4.16545    -15.307229
   4.19349    -15.304755
   4.22152    -15.302469
   4.24956    -15.300361
   4.27760    -15.298510
   4.30563    -15.296906
   4.33367    -15.295582
   4.36170    -15.294482
   4.38974    -15.293740
   4.41777    -15.293324
   4.44581    -15.293159
   4.44581    -15.293159
   4.49598    -15.293545
   4.54615    -15.294619
   4.59632    -15.296283
   4.64649    -15.298437
   4.69666    -15.300886
   4.74683    -15.303384
   4.79700    -15.305747
   4.84717    -15.307833
   4.89734    -15.309529
   4.94751    -15.310863
   4.99768    -15.311729
   5.04785    -15.312287
   5.09803    -15.312629
   5.14820    -15.312748
   5.19837    -15.312755
   5.24854    -15.312673
   5.29871    -15.312586
   5.34888    -15.312508
   5.39905    -15.312448
 
# Band-Index    6
   5.39905    -14.450021
   5.34888    -14.440579
   5.29871    -14.412798
   5.24854    -14.368277
   5.19837    -14.309304
   5.14820    -14.238789
   5.09803    -14.161365
   5.04785    -14.091237
   4.99768    -14.063585
   4.94751    -14.065543
   4.89734    -14.074160
   4.84717    -14.084326
   4.79700    -14.094542
   4.74683    -14.104098
   4.69666    -14.112643
   4.64649    -14.119973
   4.59632    -14.125845
   4.54615    -14.130126
   4.49598    -14.132713
   4.44581    -14.133588
   4.44581    -14.133588
   4.41777    -14.133473
   4.38974    -14.133068
   4.36170    -14.132466
   4.33367    -14.131642
   4.30563    -14.130634
   4.27760    -14.129458
   4.24956    -14.128187
   4.22152    -14.126861
   4.19349    -14.125508
   4.16545    -14.124199
   4.13742    -14.122960
   4.10938    -14.121819
   4.08135    -14.120843
   4.05331    -14.120041
   4.02527    -14.119407
   3.99724    -14.118928
   3.96920    -14.118655
   3.94117    -14.118506
   3.91313    -14.118485
   3.91313    -14.118485
   3.85566    -14.118470
   3.79819    -14.118279
   3.74071    -14.117439
   3.68324    -14.115514
   3.62577    -14.112196
   3.56830    -14.107282
   3.51082    -14.100709
   3.45335    -14.092591
   3.39588    -14.083173
   3.33841    -14.073066
   3.28094    -14.063750
   3.22346    -14.060430
   3.16599    -14.091325
   3.10852    -14.175222
   3.05105    -14.264059
   2.99357    -14.340887
   2.93610    -14.399934
   2.87863    -14.437247
   2.82116    -14.450021
   2.82116    -14.450021
   2.77159    -14.440579
   2.72202    -14.412802
   2.67245    -14.368283
   2.62288    -14.309320
   2.57331    -14.238807
   2.52374    -14.161389
   2.47417    -14.091240
   2.42460    -14.063562
   2.37503    -14.065515
   2.32546    -14.074139
   2.27589    -14.084348
   2.22632    -14.094550
   2.17675    -14.104127
   2.12718    -14.112700
   2.07761    -14.119985
   2.02804    -14.125821
   1.97847    -14.130075
   1.92890    -14.132669
   1.87933    -14.133482
   1.87933    -14.133482
   1.84989    -14.133344
   1.82046    -14.132931
   1.79102    -14.132274
   1.76158    -14.131387
   1.73215    -14.130288
   1.70271    -14.129048
   1.67327    -14.127689
   1.64384    -14.126297
   1.61440    -14.124882
   1.58496    -14.123521
   1.55553    -14.122304
   1.52609    -14.121181
