#K-Path(1/A) Energy-Level(eV)
# NKPTS & NBANDS: 140  40
# Band-Index:    1
   0.00000    -16.470234
   0.01341    -16.470255
   0.02682    -16.470263
   0.04023    -16.470265
   0.05365    -16.470268
   0.06706    -16.470274
   0.08047    -16.470278
   0.09388    -16.470283
   0.10729    -16.470290
   0.12070    -16.470296
   0.13412    -16.470303
   0.14753    -16.470317
   0.16094    -16.470320
   0.17435    -16.470325
   0.18776    -16.470336
   0.20117    -16.470342
   0.21459    -16.470351
   0.22800    -16.470354
   0.24141    -16.470350
   0.25482    -16.470350
   0.25482    -16.470350
   0.31064    -16.471396
   0.36647    -16.474739
   0.42229    -16.480878
   0.47811    -16.490503
   0.53393    -16.504031
   0.58976    -16.521340
   0.64558    -16.541615
   0.70140    -16.563627
   0.75723    -16.586008
   0.81305    -16.607607
   0.86887    -16.627566
   0.92469    -16.645276
   0.98052    -16.660366
   1.03634    -16.672651
   1.09216    -16.682113
   1.14798    -16.688910
   1.20381    -16.693329
   1.25963    -16.695765
   1.31545    -16.696675
   1.31545    -16.696675
   1.34473    -16.696698
   1.37402    -16.696514
   1.40330    -16.696180
   1.43258    -16.695762
   1.46186    -16.695331
   1.49114    -16.694935
   1.52043    -16.694599
   1.54971    -16.694359
   1.57899    -16.694222
   1.60827    -16.694198
   1.63756    -16.694273
   1.66684    -16.694431
   1.69612    -16.694639
   1.72540    -16.694882
   1.75468    -16.695121
   1.78397    -16.695347
   1.81325    -16.695525
   1.84253    -16.695623
   1.87181    -16.695657
   1.87181    -16.695657
   1.92115    -16.694106
   1.97049    -16.689463
   2.01983    -16.681795
   2.06916    -16.671253
   2.11850    -16.658026
   2.16784    -16.642346
   2.21718    -16.624589
   2.26652    -16.605215
   2.31586    -16.584791
   2.36519    -16.564068
   2.41453    -16.543888
   2.46387    -16.525202
   2.51321    -16.508870
   2.56255    -16.495523
   2.61189    -16.485390
   2.66122    -16.478224
   2.71056    -16.473617
   2.75990    -16.471053
   2.80924    -16.470234
   2.80924    -16.470234
   2.86643    -16.471358
   2.92362    -16.474881
   2.98082    -16.481383
   3.03801    -16.491577
   3.09521    -16.505916
   3.15240    -16.524142
   3.20959    -16.545304
   3.26679    -16.568013
   3.32398    -16.590865
   3.38117    -16.612707
   3.43837    -16.632620
   3.49556    -16.650030
   3.55275    -16.664594
   3.60995    -16.676205
   3.66714    -16.684912
   3.72433    -16.690908
   3.78153    -16.694564
   3.83872    -16.696330
   3.89591    -16.696706
   3.89591    -16.696706
   3.92382    -16.696550
   3.95174    -16.696265
   3.97965    -16.695889
   4.00756    -16.695476
   4.03547    -16.695080
   4.06338    -16.694738
   4.09129    -16.694463
   4.11920    -16.694284
   4.14712    -16.694206
   4.17503    -16.694219
   4.20294    -16.694319
   4.23085    -16.694491
   4.25876    -16.694712
   4.28667    -16.694956
   4.31458    -16.695186
   4.34250    -16.695392
   4.37041    -16.695548
   4.39832    -16.695669
   4.42623    -16.695703
   4.42623    -16.695703
   4.47617    -16.694146
   4.52611    -16.689481
   4.57606    -16.681811
   4.62600    -16.671251
   4.67594    -16.658020
   4.72588    -16.642351
   4.77582    -16.624611
   4.82577    -16.605229
   4.87571    -16.584819
   4.92565    -16.564098
   4.97559    -16.543906
   5.02554    -16.525220
   5.07548    -16.508884
   5.12542    -16.495539
   5.17536    -16.485396
   5.22530    -16.478229
   5.27525    -16.473616
   5.32519    -16.471056
   5.37513    -16.470234
 
# Band-Index:    2
   5.37513    -16.240467
   5.32519    -16.242673
   5.27525    -16.248900
   5.22530    -16.258147
   5.17536    -16.269038
   5.12542    -16.280029
   5.07548    -16.289969
   5.02554    -16.298164
   4.97559    -16.304593
   4.92565    -16.309652
   4.87571    -16.313880
   4.82577    -16.317838
   4.77582    -16.321922
   4.72588    -16.326305
   4.67594    -16.330945
   4.62600    -16.335590
   4.57606    -16.339849
   4.52611    -16.343286
   4.47617    -16.345523
   4.42623    -16.346301
   4.42623    -16.346301
   4.39832    -16.346074
   4.37041    -16.345385
   4.34250    -16.344274
   4.31458    -16.342768
   4.28667    -16.340900
   4.25876    -16.338738
   4.23085    -16.336340
   4.20294    -16.333786
   4.17503    -16.331147
   4.14712    -16.328495
   4.11920    -16.325897
   4.09129    -16.323436
   4.06338    -16.321174
   4.03547    -16.319157
   4.00756    -16.317454
   3.97965    -16.316087
   3.95174    -16.315081
   3.92382    -16.314435
   3.89591    -16.314165
   3.89591    -16.314165
   3.83872    -16.314601
   3.78153    -16.316034
   3.72433    -16.317929
   3.66714    -16.319686
   3.60995    -16.320859
   3.55275    -16.321190
   3.49556    -16.320656
   3.43837    -16.319331
   3.38117    -16.317291
   3.32398    -16.314524
   3.26679    -16.310762
   3.20959    -16.305515
   3.15240    -16.298183
   3.09521    -16.288356
   3.03801    -16.276326
   2.98082    -16.263388
   2.92362    -16.251680
   2.86643    -16.243456
   2.80924    -16.240467
   2.80924    -16.240467
   2.75990    -16.242682
   2.71056    -16.248916
   2.66122    -16.258155
   2.61189    -16.269038
   2.56255    -16.280028
   2.51321    -16.289982
   2.46387    -16.298183
   2.41453    -16.304605
   2.36519    -16.309669
   2.31586    -16.313913
   2.26652    -16.317882
   2.21718    -16.321975
   2.16784    -16.326382
   2.11850    -16.331057
   2.06916    -16.335702
   2.01983    -16.339949
   1.97049    -16.343380
   1.92115    -16.345606
   1.87181    -16.346376
   1.87181    -16.346376
   1.84253    -16.346127
   1.81325    -16.345391
   1.78397    -16.344166
   1.75468    -16.342515
   1.72540    -16.340488
   1.69612    -16.338141
   1.66684    -16.335565
   1.63756    -16.332836
   1.60827    -16.330034
   1.57899    -16.327259
   1.54971    -16.324584
   1.52043    -16.322098
   1.49114    -16.319877
   1.46186    -16.317955
   1.43258    -16.316410
   1.40330    -16.315264
   1.37402    -16.314534
   1.34473    -16.314190
   1.31545    -16.314222
   1.31545    -16.314222
   1.25963    -16.315147
   1.20381    -16.316803
   1.14798    -16.318671
   1.09216    -16.320233
   1.03634    -16.321127
   0.98052    -16.321190
   0.92469    -16.320412
   0.86887    -16.318919
   0.81305    -16.316769
   0.75723    -16.313891
   0.70140    -16.309944
   0.64558    -16.304466
   0.58976    -16.296916
   0.53393    -16.286991
   0.47811    -16.275082
   0.42229    -16.262476
   0.36647    -16.251183
   0.31064    -16.243319
   0.25482    -16.240483
   0.25482    -16.240483
   0.24141    -16.240483
   0.22800    -16.240489
   0.21459    -16.240489
   0.20117    -16.240481
   0.18776    -16.240485
   0.17435    -16.240485
   0.16094    -16.240485
   0.14753    -16.240499
   0.13412    -16.240497
   0.12070    -16.240496
   0.10729    -16.240496
   0.09388    -16.240496
   0.08047    -16.240496
   0.06706    -16.240496
   0.05365    -16.240493
   0.04023    -16.240472
   0.02682    -16.240471
   0.01341    -16.240467
   0.00000    -16.240467
 
# Band-Index:    3
   0.00000    -16.240467
   0.01341    -16.240467
   0.02682    -16.240471
   0.04023    -16.240472
   0.05365    -16.240493
   0.06706    -16.240496
   0.08047    -16.240496
   0.09388    -16.240496
   0.10729    -16.240496
   0.12070    -16.240496
   0.13412    -16.240497
   0.14753    -16.240499
   0.16094    -16.240485
   0.17435    -16.240485
   0.18776    -16.240485
   0.20117    -16.240481
   0.21459    -16.240489
   0.22800    -16.240489
   0.24141    -16.240483
   0.25482    -16.240483
   0.25482    -16.240483
   0.31064    -16.239585
   0.36647    -16.236949
   0.42229    -16.232682
   0.47811    -16.227050
   0.53393    -16.220356
   0.58976    -16.213024
   0.64558    -16.205523
   0.70140    -16.198343
   0.75723    -16.191858
   0.81305    -16.186385
   0.86887    -16.182098
   0.92469    -16.179016
   0.98052    -16.177047
   1.03634    -16.175999
   1.09216    -16.175663
   1.14798    -16.175825
   1.20381    -16.176278
   1.25963    -16.176792
   1.31545    -16.177089
   1.31545    -16.177089
   1.34473    -16.177094
   1.37402    -16.176970
   1.40330    -16.176686
   1.43258    -16.176207
   1.46186    -16.175563
   1.49114    -16.174750
   1.52043    -16.173742
   1.54971    -16.172580
   1.57899    -16.171298
   1.60827    -16.169904
   1.63756    -16.168415
   1.66684    -16.166954
   1.69612    -16.165502
   1.72540    -16.164148
   1.75468    -16.162936
   1.78397    -16.161928
   1.81325    -16.161182
   1.84253    -16.160682
   1.87181    -16.160536
   1.87181    -16.160536
   1.92115    -16.160859
   1.97049    -16.161890
   2.01983    -16.163598
   2.06916    -16.166049
   2.11850    -16.169289
   2.16784    -16.173326
   2.21718    -16.178216
   2.26652    -16.183871
   2.31586    -16.190196
   2.36519    -16.197023
   2.41453    -16.204112
   2.46387    -16.211213
   2.51321    -16.218035
   2.56255    -16.224324
   2.61189    -16.229856
   2.66122    -16.234396
   2.71056    -16.237749
   2.75990    -16.239788
   2.80924    -16.240467
   2.80924    -16.240467
   2.86643    -16.239544
   2.92362    -16.236764
   2.98082    -16.232311
   3.03801    -16.226431
   3.09521    -16.219502
   3.15240    -16.211961
   3.20959    -16.204258
   3.26679    -16.196991
   3.32398    -16.190533
   3.38117    -16.185210
   3.43837    -16.181148
   3.49556    -16.178333
   3.55275    -16.176611
   3.60995    -16.175803
   3.66714    -16.175679
   3.72433    -16.175995
   3.78153    -16.176501
   3.83872    -16.176954
   3.89591    -16.177108
   3.89591    -16.177108
   3.92382    -16.177008
   3.95174    -16.176777
   3.97965    -16.176395
   4.00756    -16.175827
   4.03547    -16.175079
   4.06338    -16.174189
   4.09129    -16.173129
   4.11920    -16.171954
   4.14712    -16.170657
   4.17503    -16.169282
   4.20294    -16.167840
   4.23085    -16.166426
   4.25876    -16.165062
   4.28667    -16.163828
   4.31458    -16.162744
   4.34250    -16.161810
   4.37041    -16.161120
   4.39832    -16.160716
   4.42623    -16.160564
   4.42623    -16.160564
   4.47617    -16.160895
   4.52611    -16.161889
   4.57606    -16.163576
   4.62600    -16.166023
   4.67594    -16.169264
   4.72588    -16.173325
   4.77582    -16.178212
   4.82577    -16.183879
   4.87571    -16.190192
   4.92565    -16.196995
   4.97559    -16.204095
   5.02554    -16.211207
   5.07548    -16.218037
   5.12542    -16.224338
   5.17536    -16.229864
   5.22530    -16.234373
   5.27525    -16.237743
   5.32519    -16.239775
   5.37513    -16.240467
 
# Band-Index:    4
   5.37513    -16.042996
   5.32519    -16.043691
   5.27525    -16.045635
   5.22530    -16.048486
   5.17536    -16.051995
   5.12542    -16.055851
   5.07548    -16.059884
   5.02554    -16.064023
   4.97559    -16.068141
   4.92565    -16.072219
   4.87571    -16.076250
   4.82577    -16.080307
   4.77582    -16.084577
   4.72588    -16.089394
   4.67594    -16.095160
   4.62600    -16.101661
   4.57606    -16.107783
   4.52611    -16.112539
   4.47617    -16.115464
   4.42623    -16.116439
   4.42623    -16.116439
   4.39832    -16.116152
   4.37041    -16.115277
   4.34250    -16.113858
   4.31458    -16.111887
   4.28667    -16.109350
   4.25876    -16.106315
   4.23085    -16.102806
   4.20294    -16.098869
   4.17503    -16.094541
   4.14712    -16.089929
   4.11920    -16.085123
   4.09129    -16.080252
   4.06338    -16.075480
   4.03547    -16.071013
   4.00756    -16.067268
   3.97965    -16.064664
   3.95174    -16.062854
   3.92382    -16.061597
   3.89591    -16.061002
   3.89591    -16.061002
   3.83872    -16.062066
   3.78153    -16.065275
   3.72433    -16.068944
   3.66714    -16.072269
   3.60995    -16.074858
   3.55275    -16.076535
   3.49556    -16.077225
   3.43837    -16.076884
   3.38117    -16.075590
   3.32398    -16.073416
   3.26679    -16.070484
   3.20959    -16.066947
   3.15240    -16.062972
   3.09521    -16.058684
   3.03801    -16.054274
   2.98082    -16.050085
   2.92362    -16.046478
   2.86643    -16.043943
   2.80924    -16.042996
   2.80924    -16.042996
   2.75990    -16.043697
   2.71056    -16.045637
   2.66122    -16.048488
   2.61189    -16.051989
   2.56255    -16.055836
   2.51321    -16.059900
   2.46387    -16.064008
   2.41453    -16.068124
   2.36519    -16.072196
   2.31586    -16.076229
   2.26652    -16.080304
   2.21718    -16.084557
   2.16784    -16.089375
   2.11850    -16.095140
   2.06916    -16.101629
   2.01983    -16.107704
   1.97049    -16.112422
   1.92115    -16.115320
   1.87181    -16.116291
   1.87181    -16.116291
   1.84253    -16.115981
   1.81325    -16.115059
   1.78397    -16.113492
   1.75468    -16.111323
   1.72540    -16.108567
   1.69612    -16.105257
   1.66684    -16.101424
   1.63756    -16.097124
   1.60827    -16.092459
   1.57899    -16.087512
   1.54971    -16.082416
   1.52043    -16.077342
   1.49114    -16.072514
   1.46186    -16.068311
   1.43258    -16.065268
   1.40330    -16.063212
   1.37402    -16.061780
   1.34473    -16.061039
   1.31545    -16.061110
   1.31545    -16.061110
   1.25963    -16.063278
   1.20381    -16.066732
   1.14798    -16.070258
   1.09216    -16.073308
   1.03634    -16.075572
   0.98052    -16.076904
   0.92469    -16.077230
   0.86887    -16.076634
   0.81305    -16.075148
   0.75723    -16.072874
   0.70140    -16.069877
   0.64558    -16.066326
   0.58976    -16.062370
   0.53393    -16.058152
   0.47811    -16.053854
   0.42229    -16.049782
   0.36647    -16.046316
   0.31064    -16.043934
   0.25482    -16.043072
   0.25482    -16.043072
   0.24141    -16.043072
   0.22800    -16.043085
   0.21459    -16.043085
   0.20117    -16.043056
   0.18776    -16.043043
   0.17435    -16.043047
   0.16094    -16.043046
   0.14753    -16.043063
   0.13412    -16.043048
   0.12070    -16.043046
   0.10729    -16.043045
   0.09388    -16.043043
   0.08047    -16.043042
   0.06706    -16.043042
   0.05365    -16.043021
   0.04023    -16.043007
   0.02682    -16.043007
   0.01341    -16.042998
   0.00000    -16.042996
 
# Band-Index:    5
   0.00000    -16.042996
   0.01341    -16.042998
   0.02682    -16.043007
   0.04023    -16.043007
   0.05365    -16.043021
   0.06706    -16.043042
   0.08047    -16.043042
   0.09388    -16.043043
   0.10729    -16.043045
   0.12070    -16.043046
   0.13412    -16.043048
   0.14753    -16.043063
   0.16094    -16.043046
   0.17435    -16.043047
   0.18776    -16.043043
   0.20117    -16.043056
   0.21459    -16.043085
   0.22800    -16.043085
   0.24141    -16.043072
   0.25482    -16.043072
   0.25482    -16.043072
   0.31064    -16.043008
   0.36647    -16.042840
   0.42229    -16.042517
   0.47811    -16.042055
   0.53393    -16.041418
   0.58976    -16.040558
   0.64558    -16.039506
   0.70140    -16.038292
   0.75723    -16.036961
   0.81305    -16.035719
   0.86887    -16.035018
   0.92469    -16.038201
   0.98052    -16.047916
   1.03634    -16.055341
   1.09216    -16.059637
   1.14798    -16.061122
   1.20381    -16.060290
   1.25963    -16.057825
   1.31545    -16.054367
   1.31545    -16.054367
   1.34473    -16.054089
   1.37402    -16.056395
   1.40330    -16.059285
   1.43258    -16.062488
   1.46186    -16.065476
   1.49114    -16.067813
   1.52043    -16.069858
   1.54971    -16.071736
   1.57899    -16.073488
   1.60827    -16.075084
   1.63756    -16.076526
   1.66684    -16.077809
   1.69612    -16.078928
   1.72540    -16.079889
   1.75468    -16.080676
   1.78397    -16.081292
   1.81325    -16.081737
   1.84253    -16.081990
   1.87181    -16.082077
   1.87181    -16.082077
   1.92115    -16.081671
   1.97049    -16.080405
   2.01983    -16.077916
   2.06916    -16.073509
   2.11850    -16.065870
   2.16784    -16.053645
   2.21718    -16.036523
   2.26652    -16.030367
   2.31586    -16.033256
   2.36519    -16.035741
   2.41453    -16.037801
   2.46387    -16.039426
   2.51321    -16.040653
   2.56255    -16.041541
   2.61189    -16.042182
   2.66122    -16.042595
   2.71056    -16.042860
   2.75990    -16.042961
   2.80924    -16.042996
   2.80924    -16.042996
   2.86643    -16.042958
   2.92362    -16.042798
   2.98082    -16.042481
   3.03801    -16.041990
   3.09521    -16.041325
   3.15240    -16.040423
   3.20959    -16.039299
   3.26679    -16.038007
   3.32398    -16.036644
   3.38117    -16.035442
   3.43837    -16.035108
   3.49556    -16.041065
   3.55275    -16.050662
   3.60995    -16.057182
   3.66714    -16.060513
   3.72433    -16.061033
   3.78153    -16.059403
   3.83872    -16.056360
   3.89591    -16.053932
   3.89591    -16.053932
   3.92382    -16.055994
   3.95174    -16.058691
   3.97965    -16.061716
   4.00756    -16.064684
   4.03547    -16.067066
   4.06338    -16.069090
   4.09129    -16.070936
   4.11920    -16.072648
   4.14712    -16.074237
   4.17503    -16.075691
   4.20294    -16.077007
   4.23085    -16.078184
   4.25876    -16.079219
   4.28667    -16.080099
   4.31458    -16.080810
   4.34250    -16.081373
   4.37041    -16.081795
   4.39832    -16.082047
   4.42623    -16.082115
   4.42623    -16.082115
   4.47617    -16.081710
   4.52611    -16.080403
   4.57606    -16.077904
   4.62600    -16.073496
   4.67594    -16.065876
   4.72588    -16.053670
   4.77582    -16.036565
   4.82577    -16.030371
   4.87571    -16.033255
   4.92565    -16.035762
   4.97559    -16.037806
   5.02554    -16.039417
   5.07548    -16.040656
   5.12542    -16.041540
   5.17536    -16.042175
   5.22530    -16.042600
   5.27525    -16.042849
   5.32519    -16.042961
   5.37513    -16.042996
 
# Band-Index:    6
   5.37513    -15.756716
   5.32519    -15.763836
   5.27525    -15.777088
   5.22530    -15.795032
   5.17536    -15.817432
   5.12542    -15.843501
   5.07548    -15.872154
   5.02554    -15.902313
   4.97559    -15.932730
   4.92565    -15.962329
   4.87571    -15.990092
   4.82577    -16.015111
   4.77582    -16.027173
   4.72588    -16.023776
   4.67594    -16.020364
   4.62600    -16.017159
   4.57606    -16.014406
   4.52611    -16.012270
   4.47617    -16.010949
   4.42623    -16.010490
   4.42623    -16.010490
   4.39832    -16.010656
   4.37041    -16.011141
   4.34250    -16.011980
   4.31458    -16.013140
   4.28667    -16.014591
   4.25876    -16.016316
   4.23085    -16.018309
   4.20294    -16.020555
   4.17503    -16.023014
   4.14712    -16.025637
   4.11920    -16.028419
   4.09129    -16.031317
   4.06338    -16.034302
   4.03547    -16.037316
   4.00756    -16.040331
   3.97965    -16.043324
   3.95174    -16.046217
   3.92382    -16.048910
   3.89591    -16.051057
   3.89591    -16.051057
   3.83872    -16.048251
   3.78153    -16.043819
   3.72433    -16.039842
   3.66714    -16.036623
   3.60995    -16.034318
   3.55275    -16.032940
   3.49556    -16.031864
   3.43837    -16.023821
   3.38117    -16.005715
   3.32398    -15.982782
   3.26679    -15.955944
   3.20959    -15.926056
   3.15240    -15.894358
   3.09521    -15.862384
   3.03801    -15.831822
   2.98082    -15.804580
   2.92362    -15.782226
   2.86643    -15.765686
   2.80924    -15.756716
   2.80924    -15.756716
   2.75990    -15.763845
   2.71056    -15.777099
   2.66122    -15.795035
   2.61189    -15.817447
   2.56255    -15.843486
   2.51321    -15.872196
   2.46387    -15.902312
   2.41453    -15.932718
   2.36519    -15.962303
   2.31586    -15.990055
   2.26652    -16.015077
   2.21718    -16.027153
   2.16784    -16.023761
   2.11850    -16.020376
   2.06916    -16.017188
   2.01983    -16.014425
   1.97049    -16.012263
   1.92115    -16.010900
   1.87181    -16.010438
   1.87181    -16.010438
   1.84253    -16.010626
   1.81325    -16.011213
   1.78397    -16.012132
   1.75468    -16.013408
   1.72540    -16.015018
   1.69612    -16.016904
   1.66684    -16.019093
   1.63756    -16.021517
   1.60827    -16.024168
   1.57899    -16.026996
   1.54971    -16.029959
